Raman_Shift,Intensity
cm^-^1,a.u.
50.3599,281.15
50.8853,279.856
51.4128,284.962
51.9402,289.518
52.4655,296.774
52.9929,300.38
53.5203,308.236
54.0455,312.491
54.5728,327.697
55.0979,337.453
55.6251,352.359
56.1524,370.315
56.6774,383.221
57.2046,410.827
57.7296,424.683
58.2567,457.589
58.7837,480.895
59.3086,502.55
59.8356,515.806
60.3605,527.362
60.8874,542.068
61.4144,561.474
61.9391,577.33
62.466,598.186
62.9907,611.642
63.5175,627.348
64.0421,647.254
64.5688,668.16
65.0934,682.366
65.6201,706.171
66.1446,737.127
66.6712,744.883
67.1957,777.089
67.7223,787.595
68.2467,812.251
68.7732,820.007
69.2975,867.163
69.824,890.369
70.3483,942.475
70.8746,1022.03
71.3989,1121.64
71.9252,1290.74
72.4494,1469.8
72.9756,1581.6
73.4997,1518.86
74.0238,1421.82
74.55,1335.07
75.074,1329.58
75.6001,1436.53
76.1241,1601.54
76.6502,1741.7
77.1741,1722.55
77.6979,1549.01
78.2239,1339.51
78.7477,1182.17
79.2736,1067.73
79.7974,1025.18
80.3211,991.287
80.8469,978.293
81.3706,975.049
81.8942,987.555
82.42,994.861
82.9436,987.616
83.4671,996.572
83.9927,1015.58
84.5162,1046.48
85.0397,1103.04
85.5653,1179.75
86.0887,1302.2
86.612,1491.51
87.1375,1738.46
87.6608,2006.47
88.1841,2140.68
88.7095,2090.38
89.2327,1889.19
89.7559,1644.79
90.2812,1421.55
90.8043,1282.61
91.3274,1166.66
91.8505,1094.82
92.3757,1065.97
92.8987,1046.63
93.4217,1033.73
93.9447,1031.39
94.4697,1016.45
94.9926,1022.8
95.5155,1038.01
96.0383,1071.11
96.5612,1116.72
97.0861,1160.83
97.6088,1200.28
98.1316,1191.89
98.6543,1158.34
99.1769,1105.05
99.7017,1047.21
100.224,1016.16
100.747,988.668
101.269,962.173
101.792,950.829
102.314,946.835
102.839,939.641
103.361,938.147
103.884,938.903
104.406,927.509
104.929,942.415
105.451,936.871
105.973,946.977
106.498,946.083
107.02,949.589
107.542,933.844
108.064,936.1
108.586,933.706
109.108,937.862
109.631,938.418
110.153,940.874
110.675,950.43
111.197,942.636
111.719,952.042
112.241,956.148
112.765,968.554
113.286,975.21
113.808,976.315
114.33,984.071
114.852,990.127
115.374,999.983
115.895,1007.09
116.417,1016.95
116.939,1026.95
117.46,1029.11
117.982,1042.36
118.504,1050.12
119.025,1077.32
119.547,1096.78
120.068,1106.74
120.59,1133.49
121.111,1144.5
121.633,1170.1
122.154,1210.96
122.675,1247.02
123.197,1268.07
123.716,1310.08
124.237,1350.28
124.758,1394.44
125.279,1467.95
125.801,1532.6
126.322,1617.71
126.843,1710.46
127.364,1834.57
127.885,1976.38
128.406,2134.58
128.927,2318.39
129.448,2551.19
129.967,2829.25
130.488,3137.5
131.009,3533.96
131.53,3938.17
132.05,4417.82
132.571,4834.13
133.092,5262.43
133.611,5509.89
134.131,5608.7
134.652,5508
135.173,5233.16
135.693,4842.36
136.214,4404.37
136.732,3951.38
137.253,3565.23
137.773,3230.84
138.294,2955.94
138.814,2778.65
139.333,2624.56
139.853,2529.76
140.373,2484.27
140.894,2464.07
141.412,2454.23
141.932,2484.18
142.452,2494.89
142.973,2561.85
143.491,2622.85
144.011,2679.76
144.531,2752.81
145.051,2846.72
145.569,2929.73
146.089,3056.98
146.609,3212.29
147.129,3422.69
147.647,3675.9
148.167,4013.86
148.687,4411.16
149.205,4893.22
149.724,5392.27
150.244,5949.53
150.762,6377.74
151.282,6685.49
151.801,6782
152.319,6645
152.839,6329.16
153.358,5939.06
153.876,5503.62
154.395,5108.23
154.915,4836.83
155.432,4654.59
155.952,4590.19
156.469,4553.3
156.989,4553.31
157.508,4451.51
158.025,4339.07
158.545,4142.87
159.062,3850.83
159.581,3512.39
160.1,3155.89
160.617,2802.85
161.137,2504.45
161.654,2265.91
162.173,2040.32
162.69,1857.37
163.209,1713.33
163.726,1608.68
164.245,1513.84
164.762,1431.29
165.281,1369.35
165.8,1315.31
166.317,1271.66
166.835,1235.22
167.352,1191.57
167.871,1167.78
168.388,1139.54
168.907,1109.24
169.423,1098.7
169.94,1075.2
170.458,1062.71
170.975,1056.02
171.494,1036.37
172.01,1025.98
172.529,1034.18
173.045,1028.79
173.564,1033.8
174.08,1038.95
174.598,1047.41
175.115,1064.26
175.631,1081.42
176.149,1112.62
176.666,1146.43
177.184,1185.39
177.7,1214.49
178.216,1216.3
178.734,1227.55
179.251,1207.41
179.767,1166.92
180.285,1130.72
180.801,1092.23
181.319,1051.18
181.835,1025.54
182.351,1008.05
182.869,986.702
183.385,973.658
183.9,956.814
184.418,949.719
184.934,936.525
185.45,938.881
185.968,929.437
186.483,929.393
186.999,928.799
187.515,923.805
188.032,924.011
188.548,916.967
189.063,925.573
189.581,929.629
190.097,935.384
190.612,940.74
191.127,944.646
191.645,952.752
192.16,962.908
192.676,974.614
193.191,979.77
193.708,990.526
194.224,995.482
194.739,991.588
195.254,981.594
195.769,979.45
196.286,959.805
196.802,961.011
197.317,947.017
197.832,951.473
198.347,938.429
198.864,944.035
199.379,938.391
199.894,932.047
200.409,926.353
200.924,924.059
201.438,922.465
201.955,916.07
202.47,918.726
202.985,917.732
203.5,910.088
204.014,921.494
204.529,921.55
205.044,925.606
205.558,927.562
206.075,932.868
206.59,935.224
207.104,945.18
207.619,950.885
208.133,961.541
208.648,973.847
209.162,993.453
209.676,1011.41
210.191,1021.96
210.705,1058.92
211.219,1083.28
211.734,1113.53
212.248,1149.24
212.762,1194.44
213.276,1224.05
213.791,1258.01
214.305,1307.91
214.819,1352.52
215.333,1379.97
215.847,1420.63
216.361,1419.94
216.875,1433.09
217.389,1441.95
217.903,1447.35
218.417,1451.81
218.931,1464.47
219.445,1483.42
219.958,1499.23
220.472,1531.13
220.986,1572.19
221.5,1611.95
222.013,1629.05
222.527,1675.01
223.041,1687.96
223.554,1704.77
224.068,1692.92
224.582,1674.83
225.095,1656.49
225.607,1597.99
226.12,1553
226.633,1518.85
227.147,1472.86
227.66,1421.02
228.174,1381.07
228.687,1327.93
229.2,1293.83
229.712,1251.24
230.225,1221.9
230.738,1193.2
231.251,1165.11
231.764,1148.66
232.278,1127.82
232.789,1102.88
233.302,1082.23
233.815,1076.89
234.328,1054.74
234.841,1041.05
235.352,1039.6
235.865,1022.91
236.378,1011.82
236.89,997.772
237.403,991.478
237.914,982.434
238.427,972.04
238.94,962.846
239.452,961.202
239.963,955.508
240.476,941.364
240.988,936.92
241.501,936.376
242.011,932.682
242.524,924.938
243.037,920.194
243.547,912.899
244.06,920.055
244.572,919.961
245.084,909.517
245.595,914.073
246.107,898.729
246.619,884.985
247.13,906.041
247.642,897.297
248.154,898.803
248.664,899.258
249.177,884.214
249.689,891.07
250.199,889.626
250.711,872.982
251.221,880.788
251.733,878.344
252.245,877.75
252.755,880.306
253.267,879.862
253.777,878.668
254.289,876.924
254.801,875.229
255.311,875.735
255.822,876.841
256.332,872.897
256.844,884.403
257.356,873.409
257.865,868.215
258.377,875.471
258.887,874.977
259.398,869.783
259.908,878.189
260.419,881.745
260.929,869.15
261.44,878.106
261.95,866.312
262.461,877.518
262.971,876.424
263.482,879.23
263.991,863.436
264.503,875.192
265.012,881.148
265.523,870.954
266.032,874.61
266.544,871.465
267.053,872.371
267.564,878.127
268.073,870.783
268.582,873.939
269.093,878.645
269.602,870.201
270.113,863.907
270.622,870.513
271.133,866.869
271.642,868.075
272.151,858.031
272.662,875.236
273.171,873.742
273.682,870.898
274.19,873.154
274.699,876.56
275.21,877.966
275.718,871.472
276.227,879.128
276.738,877.884
277.246,879.44
277.757,873.896
278.265,879.801
278.774,873.757
279.285,885.313
279.793,880.319
280.301,870.925
280.81,873.231
281.32,866.587
281.828,876.893
282.337,873.599
282.847,877.255
283.355,881.311
283.864,874.117
284.372,872.672
284.882,877.078
285.39,878.934
285.898,869.79
286.408,878.896
286.916,868.002
287.424,876.108
287.932,873.964
288.44,871.32
288.95,880.576
289.458,870.481
289.966,880.537
290.474,871.943
290.984,873.149
291.492,880.355
291.999,875.511
292.507,877.967
293.015,888.673
293.523,880.129
294.032,877.035
294.54,876.241
295.048,875.997
295.555,877.152
296.063,872.158
296.57,878.814
297.08,874.22
297.587,871.126
298.095,875.532
298.602,871.588
299.109,868.794
299.617,871.1
300.124,869.606
300.631,862.212
301.139,871.367
301.646,866.023
302.155,878.129
302.662,870.485
303.169,875.791
303.677,866.147
304.184,876.253
304.691,871.559
305.198,868.865
305.705,869.621
306.212,868.027
306.719,871.182
307.226,863.088
307.733,871.694
308.239,870.7
308.746,871.456
309.253,868.462
309.76,866.118
310.267,872.174
310.773,863.43
311.28,874.386
311.787,861.942
312.293,865.247
312.8,870.953
313.307,861.259
313.813,871.565
314.32,866.571
314.826,874.227
315.333,863.533
315.839,866.439
316.346,879.595
316.85,871.301
317.356,870.707
317.863,871.913
318.369,868.569
318.875,868.524
319.381,877.38
319.888,875.536
320.394,877.492
320.9,870.298
321.406,878.004
321.91,873.86
322.416,869.616
322.922,875.172
323.428,878.478
323.934,872.484
324.44,870.889
324.944,876.145
325.45,879.501
325.956,870.957
326.462,879.963
326.968,882.969
327.474,875.625
327.977,872.631
328.483,876.787
328.989,879.843
329.495,882.549
329.998,875.654
330.504,879.11
331.009,869.516
331.515,880.872
332.021,883.228
332.524,880.834
333.03,886.49
333.535,885.246
334.038,887.802
334.544,891.708
335.049,896.164
335.555,888.17
336.058,881.475
336.563,885.631
337.069,896.087
337.572,887.543
338.077,890.399
338.582,893.555
339.085,887.411
339.59,891.217
340.096,897.773
340.599,894.429
341.104,892.335
341.609,886.14
342.112,894.696
342.617,893.952
343.122,901.558
343.624,899.564
344.129,894.82
344.634,900.676
345.137,904.282
345.642,898.988
346.145,898.394
346.649,896.7
347.154,905.106
347.657,897.611
348.161,902.467
348.664,906.923
349.169,896.379
349.671,904.135
350.176,899.091
350.68,907.197
351.183,908.203
351.687,906.859
352.19,891.165
352.694,905.42
353.196,900.727
353.701,910.282
354.203,902.838
354.707,903.194
355.209,906.8
355.714,909.556
356.216,909.012
356.72,898.318
357.222,907.224
357.726,907.83
358.228,905.886
358.733,908.441
359.235,917.197
359.737,904.053
360.241,897.409
360.742,905.115
361.246,906.971
361.748,906.527
362.252,902.333
362.754,906.189
363.256,907.595
363.76,906.951
364.261,910.206
364.765,903.563
365.267,915.618
365.768,903.524
366.272,912.98
366.774,910.436
367.275,915.242
367.779,913.448
368.28,905.504
368.784,897.26
369.285,900.966
369.787,908.072
370.29,911.427
370.792,900.633
371.293,906.589
371.794,903.895
372.298,906.051
372.799,914.007
373.3,904.213
373.804,915.569
374.305,896.825
374.806,901.981
375.307,897.037
375.81,910.743
376.311,909.198
376.812,905.454
377.315,901.91
377.816,906.966
378.317,900.022
378.818,905.278
379.319,903.984
379.822,911.64
380.323,905.696
380.824,910.202
381.325,907.858
381.828,914.014
382.328,902.669
382.829,898.725
383.33,900.031
383.83,907.487
384.331,909.493
384.834,906.449
385.334,906.905
385.835,915.911
386.335,911.917
386.836,906.423
387.336,914.228
387.839,911.134
388.339,913.19
388.84,918.696
389.34,917.052
389.84,912.008
390.341,908.864
390.841,915.97
391.341,910.126
391.841,921.432
392.342,923.738
392.844,914.244
393.344,919.049
393.844,925.705
394.344,926.711
394.844,924.067
395.344,924.423
395.844,917.079
396.344,920.585
396.844,920.841
397.344,923.397
397.844,919.103
398.344,922.858
398.844,928.265
399.344,918.77
399.843,923.576
400.343,913.332
400.843,922.888
401.343,922.294
401.842,920.85
402.342,925.656
402.842,916.212
403.341,923.918
403.841,921.574
404.34,926.58
404.84,922.335
405.339,920.791
405.839,918.397
406.336,913.803
406.836,916.259
407.335,917.315
407.834,917.421
408.334,921.477
408.833,917.233
409.332,921.289
409.832,920.795
410.331,922.95
410.83,919.006
411.327,931.762
411.826,923.218
412.325,918.624
412.824,919.38
413.324,923.786
413.823,917.042
414.32,924.248
414.819,917.004
415.317,934.41
415.816,920.016
416.315,919.922
416.814,923.277
417.311,920.883
417.81,916.339
418.309,918.345
418.807,919.501
419.304,921.882
419.803,924.263
420.301,920.969
420.8,930.775
421.299,914.481
421.795,930.687
422.294,927.592
422.792,927.598
423.289,930.454
423.787,930.01
424.286,930.666
424.784,925.872
425.281,921.228
425.779,923.334
426.277,928.19
426.774,925.596
427.272,932.401
427.77,929.457
428.266,934.813
428.765,932.269
429.263,924.375
429.759,929.631
430.257,934.537
430.755,928.993
431.251,928.999
431.749,929.755
432.247,929.561
432.743,930.266
433.241,923.972
433.737,931.328
434.235,936.084
434.733,925.64
435.229,931.196
435.727,934.602
436.222,936.508
436.72,933.164
437.218,936.57
437.714,933.326
438.211,939.582
438.707,934.737
439.205,937.293
439.7,931.849
440.198,927.255
440.693,939.261
441.191,934.217
441.686,928.773
442.184,934.279
442.681,936.785
443.177,930.291
443.674,927.947
444.169,926.352
444.665,936.508
445.162,929.864
445.657,931.12
446.155,919.626
446.65,928.882
447.147,924.138
447.642,933.394
448.139,929.6
448.634,926.756
449.132,939.062
449.627,929.918
450.122,934.473
450.619,927.129
451.114,936.285
451.611,929.241
452.105,933.297
452.6,941.553
453.097,932.109
453.592,928.815
454.089,930.171
454.584,926.277
455.078,924.082
455.575,922.289
456.07,921.394
456.565,924.75
457.061,931.956
457.556,924.312
458.05,914.818
458.547,918.924
459.042,925.43
459.536,925.586
460.033,927.992
460.527,925.398
461.022,929.304
461.518,925.609
462.012,930.765
462.507,921.271
463.001,925.177
463.497,924.283
463.992,919.689
464.486,925.995
464.98,919.251
465.476,920.857
465.97,920.413
466.465,920.019
466.959,917.424
467.455,913.28
467.949,929.386
468.443,923.842
468.937,915.998
469.431,923.254
469.927,920.11
470.421,922.566
470.915,920.272
471.409,927.728
471.902,920.384
472.396,926.289
472.892,917.045
473.386,925.901
473.879,924.507
474.373,923.313
474.867,916.369
475.361,922.825
475.854,917.131
476.35,918.387
476.843,910.393
477.337,929.249
477.83,915.155
478.324,918.06
478.817,926.366
479.311,928.472
479.804,916.628
480.298,919.484
480.791,926.49
481.284,924.746
481.778,927.602
482.273,930.308
482.766,933.114
483.259,923.82
483.753,925.026
484.246,922.581
484.739,922.187
485.232,922.243
485.725,922.499
486.218,925.755
486.711,928.361
487.204,927.467
487.697,929.023
488.19,928.779
488.683,924.735
489.176,934.941
489.669,927.596
490.162,930.302
490.653,927.258
491.145,936.314
491.638,930.32
492.131,942.326
492.624,940.782
493.116,932.838
493.609,938.694
494.102,936.5
494.594,935.306
495.087,948.811
495.579,929.017
496.072,940.323
496.562,946.379
497.055,942.185
497.547,945.791
498.04,941.797
498.532,938.303
499.025,943.559
499.517,945.815
500.007,949.221
500.499,951.527
500.992,957.932
501.484,948.588
501.976,945.394
502.466,953.4
502.958,949.506
503.451,959.162
503.943,958.618
504.435,958.274
504.925,953.73
505.417,955.786
505.909,955.242
506.401,956.397
506.893,958.253
507.383,963.359
507.875,967.915
508.366,966.321
508.856,971.127
509.348,964.233
509.84,962.989
510.332,967.245
510.821,970.851
511.313,967.957
511.805,976.762
512.294,956.468
512.786,972.724
513.278,972.68
513.769,962.236
514.259,964.692
514.75,974.598
515.242,965.904
515.731,980.71
516.223,975.666
516.712,975.469
517.203,973.977
517.695,966.945
518.184,966.685
518.675,964.852
519.167,964.932
519.656,961.199
520.147,959.638
520.636,954.064
521.128,958.726
521.619,961.42
522.108,963.622
522.599,953.559
523.088,950.228
523.579,951.919
524.068,951.194
524.559,955.738
525.048,943.384
525.539,942.295
526.03,942.254
526.519,940.799
527.01,938.245
527.498,940.239
527.989,933.147
528.478,933.692
528.969,937.084
529.457,930.32
529.948,928.738
530.437,931.329
530.927,930.567
531.416,931.389
531.905,931.963
532.395,924.038
532.884,923.992
533.374,922.178
533.863,917.113
534.353,924.428
534.842,921.779
535.33,919.096
535.82,913.257
536.309,916.874
536.799,912.052
537.287,911.372
537.776,907.52
538.266,904.169
538.754,902.675
539.244,904.334
539.732,902.715
540.221,900.992
540.711,899.503
541.199,896.578
541.687,896.714
542.177,896.458
542.665,894.797
543.153,893.922
543.643,887.585
544.131,889.385
544.619,888.92
545.109,889.043
545.596,892.692
546.084,885.106
546.572,885.379
547.062,880.002
547.549,878.961
548.037,874.453
548.527,874.464
549.015,878.556
549.502,876.002
549.99,873.402
550.479,867.243
550.967,864.868
551.455,866.989
551.942,867.168
552.43,859.684
552.919,861.798
553.406,857.713
553.894,856.208
554.381,866.48
554.868,860.941
555.358,853.363
555.845,851.836
556.332,854.249
556.82,855.205
557.307,846.173
557.794,846.724
558.283,845.174
558.77,843.73
559.258,847.21
559.745,847.207
560.232,844.268
560.719,841.943
561.206,836.417
561.693,833.605
562.18,832.54
562.669,832.641
563.155,832.549
563.642,828.519
564.129,831.443
564.616,832.422
565.103,827.162
565.194,825.479
565.685,822.656
566.178,826.184
566.671,827.412
567.163,820.039
567.656,820.767
568.147,833.294
568.639,825.672
569.132,828.65
569.625,817.727
570.115,817.255
570.608,818.483
571.1,831.41
571.593,830.638
572.083,829.516
572.576,827.543
573.068,822.871
573.561,830.948
574.051,827.376
574.544,830.904
575.036,826.931
575.526,816.409
576.018,825.587
576.511,825.514
577.003,827.942
577.493,822.519
577.985,823.797
578.478,820.275
578.968,830.252
579.46,826.43
579.952,825.758
580.442,824.185
580.934,823.963
581.424,821.69
581.916,820.168
582.408,829.696
582.898,820.523
583.39,825.301
583.881,831.529
584.371,831.806
584.863,828.134
585.353,830.211
585.845,816.689
586.334,828.217
586.826,825.794
587.318,822.872
587.807,824.799
588.299,825.677
588.789,826.605
589.28,823.332
589.77,822.61
590.261,829.438
590.751,828.615
591.242,833.693
591.734,832.871
592.223,837.648
592.714,833.426
593.204,825.304
593.695,821.981
594.184,826.559
594.676,833.686
595.165,833.814
595.656,828.842
596.145,830.019
596.634,838.197
597.126,830.525
597.615,827.952
598.106,825.88
598.595,826.207
599.086,826.485
599.575,822.663
600.066,829.74
600.555,827.968
601.044,823.796
601.535,828.973
602.023,828.051
602.514,832.628
603.003,836.806
603.492,837.184
603.983,832.261
604.471,834.489
604.962,835.867
605.451,834.944
605.94,838.872
606.43,829.75
606.919,833.977
607.407,835.455
607.898,831.432
608.386,839.16
608.875,834.038
609.365,825.065
609.854,834.943
610.342,836.97
610.833,840.348
611.321,838.626
611.809,831.654
612.3,842.831
612.788,840.309
613.276,840.336
613.767,835.714
614.255,831.642
614.743,823.019
615.231,838.147
615.721,838.574
616.209,837.552
616.698,842.58
617.186,836.407
617.676,834.635
618.164,837.663
618.652,833.84
619.14,842.718
619.627,838.245
620.117,835.423
620.605,835.501
621.093,831.578
621.581,836.406
622.069,836.734
622.558,835.761
623.046,835.589
623.534,842.016
624.022,837.944
624.509,844.022
624.997,845.449
625.487,842.477
625.974,841.355
626.462,840.082
626.949,837.66
627.437,833.538
627.924,840.315
628.412,836.593
628.901,842.67
629.388,842.498
629.876,849.176
630.363,833.503
630.85,844.881
631.338,839.759
631.825,842.336
632.312,843.564
632.799,853.542
633.287,841.219
633.774,844.747
634.261,841.474
634.748,840.052
635.237,856.23
635.724,843.457
636.211,844.985
636.698,848.262
637.185,846.94
637.672,842.568
638.159,841.195
638.646,844.723
639.133,839.251
639.62,847.378
640.107,842.806
640.593,846.884
641.08,847.261
641.567,847.439
642.054,849.367
642.54,846.294
643.025,842.722
643.512,837.249
643.998,835.427
644.485,837.105
644.971,841.632
645.458,841.66
645.944,839.188
646.431,833.865
646.917,840.593
647.404,835.32
647.89,839.298
648.377,839.376
648.863,841.103
649.347,835.881
649.834,832.558
650.32,836.836
650.806,836.464
651.292,831.841
651.779,838.619
652.265,838.697
652.749,833.974
653.235,839.752
653.721,835.63
654.207,837.457
654.693,841.935
655.179,837.912
655.663,839.69
656.149,832.168
656.635,836.545
657.121,844.973
657.607,835.401
658.091,837.228
658.577,834.256
659.062,835.383
659.548,828.761
660.034,839.639
660.518,838.766
661.003,831.494
661.489,838.072
661.975,827.499
662.458,836.777
662.944,834.555
663.429,838.082
663.913,835.81
664.398,831.987
664.884,832.115
665.369,835.943
665.853,835.67
666.338,830.398
666.824,832.326
667.307,829.503
667.792,840.931
668.278,843.508
668.761,838.686
669.246,836.364
669.732,836.191
670.215,833.869
670.7,834.947
671.185,844.274
671.668,844.102
672.153,844.079
672.638,835.457
673.121,840.185
673.606,842.412
674.089,837.39
674.574,840.818
675.059,850.945
675.542,842.623
676.027,837.001
676.51,845.428
676.995,850.056
677.478,848.483
677.963,853.111
678.447,861.589
678.93,860.616
679.415,859.044
679.897,862.172
680.382,852.999
680.865,849.277
681.349,851.004
681.832,857.932
682.317,863.31
682.799,870.837
683.284,874.315
683.766,888.893
684.25,899.17
684.733,902.798
685.217,918.725
685.7,932.953
